Frequency (Hz),Measured Intensity,Position X (m),Position Y (m),Position Z (m)
100,0.25,0,0,0
150,0.41,0,0,0
200,0.62,0,0,0
240,0.79,0,0,0
270,0.92,0,0,0
300,0.85,0,0,0
350,0.67,0,0,0
400,0.48,0,0,0
500,0.29,0,0,0
600,0.18,0,0,0
700,0.12,0,0,0
800,0.08,0,0,0