Frequency (Hz),Measured Intensity,Position X (m),Position Y (m),Position Z (m)
50,0.32,0,0,0
80,0.58,0,0,0
100,0.76,0,0,0
120,0.94,0,0,0
140,0.83,0,0,0
180,0.57,0,0,0
220,0.36,0,0,0
280,0.21,0,0,0
350,0.14,0,0,0
450,0.08,0,0,0
600,0.05,0,0,0
800,0.03,0,0,0