Frequency (Hz),Measured Intensity,Position X (m),Position Y (m),Position Z (m)
200,0.10,0,0,0
300,0.18,0,0,0
400,0.26,0,0,0
500,0.38,0,0,0
600,0.55,0,0,0
700,0.76,0,0,0
800,0.96,0,0,0
900,0.82,0,0,0
1000,0.63,0,0,0
1200,0.35,0,0,0
1400,0.19,0,0,0
1600,0.11,0,0,0