Frequency (Hz),Measured Intensity,Position X (m),Position Y (m),Position Z (m)
100,0.15,0,0,0
200,0.28,0,0,0
300,0.47,0,0,0
400,0.78,0,0,0
440,0.95,0,0,0
480,0.81,0,0,0
520,0.65,0,0,0
600,0.42,0,0,0
700,0.28,0,0,0
800,0.19,0,0,0
900,0.12,0,0,0
1000,0.09,0,0,0