Frequency (Hz),Measured Intensity,Position X (m),Position Y (m),Position Z (m)
440,0.95,0.0,0.0,0.0
440,0.92,0.5,0.0,0.0
440,0.88,1.0,0.0,0.0
440,0.82,-0.5,0.0,0.0
440,0.78,-1.0,0.0,0.0
440,0.89,0.0,0.5,0.0
440,0.86,0.0,1.0,0.0
440,0.87,0.0,-0.5,0.0
440,0.84,0.0,-1.0,0.0
440,0.91,0.0,0.0,0.5
440,0.88,0.0,0.0,1.0
440,0.89,0.0,0.0,-0.5
440,0.85,0.0,0.0,-1.0